File: data/buckling_tension_K2/CR18-700_36sp_inbound/20mm_data.csv
Tension [N],displacement [mm],delta Load [N]
219.5,0,0
219.5,1.2954,4.52779
219.5,2.5908,9.05558
219.5,5.4864,19.0477
431.3,0,0
431.3,2.032,4.56798
431.3,3.9878,9.1318
431.3,7.6454,19.1654