File: data/buckling_tension_K2/CR18-700_36sp_inbound/40mm_data.csv
Tension [N],displacement [mm],delta Load [N]
219.1,0,0
219.1,1.2446,9.90201
219.1,2.54,19.798
219.1,3.7338,28.7773
443.4,0,0
443.4,1.5748,9.92002
443.4,3.175,19.8326
443.4,4.6482,28.8272
646.3,0,0
646.3,2.0828,9.94773
646.3,4.1656,19.8866
646.3,6.0706,28.9048
839.4,0,0
839.4,2.54,9.97268
839.4,4.953,19.9296
839.4,7.0866,28.9602