File: data/buckling_tension_K2/CR18-700_36sp_inbound/53mm_data.csv
Tension [N],displacement [mm],delta Load [N]
212.6,0,0
212.6,0.8636,9.88122
212.6,1.651,18.8384
212.6,4.064,44.6949
392.6,0,0
392.6,0.889,9.88261
392.6,1.7526,18.844
392.6,4.4958,44.7184
634.1,0,0
634.1,1.0668,9.89231
634.1,2.0574,18.8606
634.1,4.953,44.7434
776.3,0,0
776.3,1.1684,9.89785
776.3,2.2606,18.8717
776.3,5.4102,44.7683
1028.7,0,0
1028.7,1.524,9.91725
1028.7,2.8956,18.9063
1028.7,6.9088,44.8501
702.9,0,0
702.9,1.0922,9.89369
702.9,2.1082,18.8634
702.9,5.0546,44.7489