File: data/buckling_tension_K2/CR18-700_36sp_inbound/60mm_data.csv
Tension [N],displacement [mm],delta Load [N]
407.8,0,0
407.8,0.6604,9.87014
407.8,1.3716,19.7342
407.8,1.9812,28.6817
627.7,0,0
627.7,0.7366,9.87429
627.7,1.524,19.7425
627.7,2.2098,28.6942
818.9,0,0
818.9,0.8636,9.88122
818.9,1.7272,19.7536
818.9,2.5146,28.7108
1035.2,0,0
1035.2,1.016,9.88954
1035.2,2.0574,19.7716
1035.2,2.9972,28.7371