File: data/buckling_tension_K2/CR18-700_36sp_inbound/70mm_data.csv
Tension [N],displacement [mm],delta Load [N]
295.3,0,0
295.3,0.4826,9.86044
295.3,0.9906,19.7134
295.3,1.4478,28.6526
506.8,0,0
506.8,0.508,9.86182
506.8,1.016,19.7148
506.8,1.4986,28.6554
718,0,0
718,0.5588,9.86459
718,1.143,19.7217
718,1.6764,28.6651
932.3,0,0
932.3,0.6096,9.86736
932.3,1.2446,19.7273
932.3,1.8034,28.672
1087.6,0,0
1087.6,0.6604,9.87014
1087.6,1.3462,19.7328
1087.6,1.9558,28.6803
1254.9,0,0
1254.9,0.7366,9.87429
1254.9,1.4986,19.7411
1254.9,2.1844,28.6928