File: data/buckling_tension_K2/CR18-700_36sp_inbound/80mm_data.csv
Tension [N],displacement [mm],delta Load [N]
339.8,0,0
339.8,0.3937,9.85559
339.8,0.7874,19.7023
339.8,1.1684,28.6374
559.6,0,0
559.6,0.4064,9.85628
559.6,0.8382,19.7051
559.6,1.2065,28.6395
559.6,1.905,44.5771
769.2,0,0
769.2,0.4318,9.85767
769.2,0.8636,19.7065
769.2,1.2573,28.6422
769.2,1.9558,44.5799
981.1,0,0
981.1,0.4572,9.85905
981.1,0.9144,19.7093
981.1,1.3462,28.6471
981.1,2.1082,44.5882
1140.9,0,0
1140.9,0.4826,9.86044
1140.9,0.9906,19.7134
1140.9,1.4351,28.6519
1140.9,2.2352,44.5951
1360.3,0,0
1360.3,0.5334,9.86321
1360.3,1.0668,19.7176
1360.3,1.5748,28.6595
1360.3,2.4638,44.6076