File: data/lateral_stiffness_tension/T0353_load-disp.csv
displacement [mm],Load [N]
0,0
0.0187657,4.45712
0.0750627,8.91424
0.150125,18.7209
0.243954,28.5275
0.412845,44.5712
0.62865,64.1845
0.891369,89.1424
1.10717,108.756
0.0187657,0