File: data/lateral_stiffness_tension/T0615_load-disp.csv
displacement [mm],Load [N]
0,0
0.0187657,4.45712
0.0750627,8.91424
0.1642,18.7209
0.262719,28.5275
0.43161,44.5712
0.647416,64.1845
0.919518,89.1424
1.13532,108.756
0,0