File: data/lateral_stiffness_tension/T0737_load-disp.csv
displacement [mm],Load [N]
0,0
0.02345709,4.45712
0.0750627,8.91424
0.178274,18.7209
0.281485,28.5275
0.450376,44.5712
0.675564,64.1845
0.957049,89.1424
1.21039,108.756
0.0469142,0