File: data/lateral_stiffness_tension/T0870_load-disp.csv
displacement [mm],Load [N]
0,0
0.0469142,4.45712
0.0938284,8.91424
0.206422,18.7209
0.319016,28.5275
0.487907,44.5712
0.722478,64.1845
1.03211,89.1424
1.27607,108.756
0.0375313,0