File: data/lateral_stiffness_tension/T1067_load-disp.csv
displacement [mm],Load [N]
0,0
0.056297,4.45712
0.117285,8.91424
0.243954,18.7209
0.370622,28.5275
0.581736,44.5712
0.844455,64.1845
1.16347,89.1424
1.43557,108.756
0.0375313,0