File: data/lateral_stiffness_tension/T353_load-disp.csv
displacement [mm],Load [N]
0,0
0.0375313,4.45712
0.0844455,8.91424
0.187657,18.7209
0.290868,28.5275
0.450376,44.5712
0.666181,64.1845
0.938284,89.1424
1.14471,108.756
0.0375313,0