File: data/rim_diam_compression/DTS-R460.txt
SI Load [lb]	SI Stroke [in]
-1.0654	-1.4551
-2.4718	-1.454
-2.4718	-1.454
-1.0654	-1.4564
-0.7138	-1.4569
-1.7686	-1.4572
-2.589	-1.4584
-4.347	-1.4609
-2.589	-1.461
-4.347	-1.4632
-6.6911	-1.4639
-3.8782	-1.4662
-4.347	-1.4662
-4.347	-1.4656
-7.3943	-1.4672
-4.347	-1.471
-7.6287	-1.4705
-8.5664	-1.4711
-7.8631	-1.4721
-8.0975	-1.4734
-8.0975	-1.475
-7.746	-1.4767
-10.4416	-1.4766
-9.9728	-1.478
-10.9104	-1.481
-13.8405	-1.482
-11.848	-1.4822
-11.6136	-1.4839
-13.4889	-1.4834
-12.3169	-1.4862
-11.848	-1.487
-12.9029	-1.488
-12.5513	-1.4905
-17.4738	-1.49
-14.6609	-1.492
-18.9974	-1.492
-16.7706	-1.4935
-17.9426	-1.496
-15.7157	-1.4965
-18.8803	-1.4966
-15.0125	-1.497
-19.2318	-1.4991
-14.6609	-1.5
-17.005	-1.5025
-17.2394	-1.5039
-18.5286	-1.503
-17.4738	-1.5061
-19.7006	-1.5059
-20.9899	-1.5065
-21.9275	-1.51
-20.1695	-1.5096
-21.3415	-1.5118
-20.9899	-1.5123
-22.1619	-1.512
-25.3264	-1.515
-23.3339	-1.5148
-22.8652	-1.5159
-26.1468	-1.5186
-24.0372	-1.5184
-24.506	-1.5215
-24.9748	-1.5205
-25.5608	-1.5229
-26.0296	-1.5224
-26.0296	-1.5251
-25.678	-1.5253
-26.7328	-1.527
-25.4436	-1.5293
-29.6629	-1.5286
-28.2565	-1.5305
-28.8425	-1.532
-30.4834	-1.5355
-32.4758	-1.535
-32.1242	-1.5365
-32.2414	-1.5359
-30.3661	-1.538
-32.3586	-1.5394
-32.2414	-1.541
-34.1166	-1.5411
-32.1242	-1.5433
-34.8199	-1.5439
-33.4134	-1.5445
-33.4134	-1.5458
-34.351	-1.5474
-36.3435	-1.55
-38.4531	-1.5494
-36.4607	-1.5504
-37.2811	-1.5522
-38.922	-1.5537
-37.1639	-1.5553
-37.8671	-1.556
-37.5155	-1.5565
-38.3359	-1.5588
-38.922	-1.5582
-38.1015	-1.5613
-41.5004	-1.563
-40.094	-1.5632
-40.7972	-1.5643
-41.6176	-1.5652
-40.7972	-1.567
-40.3284	-1.5663
-42.0864	-1.5692
-43.7273	-1.5709
-42.7897	-1.5717
-42.9069	-1.5728
-44.1961	-1.5738
-45.1337	-1.575
-47.8294	-1.577
-44.8993	-1.577
-46.6574	-1.5777
-48.0638	-1.58
-48.4154	-1.5803
-46.6574	-1.5804
-46.7746	-1.5819
-48.8842	-1.586
-48.4154	-1.5845
-49.939	-1.5865
-47.7122	-1.5889
-50.7595	-1.59
-52.2831	-1.5905
-52.6347	-1.5915
-51.2283	-1.5923
-51.4627	-1.594
-56.1508	-1.596
-52.2831	-1.597
-52.9863	-1.598
-53.8068	-1.5979
-53.1035	-1.5985
-53.3379	-1.6011
-54.7444	-1.6005
-54.0412	-1.6022
-54.2756	-1.6056
-58.7293	-1.6046
-55.2132	-1.6071
-55.7992	-1.6074
-55.9164	-1.6078
-58.4949	-1.6101
-56.7368	-1.6089
-59.4325	-1.6104
-58.0261	-1.6111
-58.1433	-1.6103
-58.2605	-1.6116
-57.3229	-1.6093
-56.0336	-1.6097
-56.854	-1.6106
-55.7992	-1.6092
-56.6196	-1.6079
-55.096	-1.6046
-55.9164	-1.6032
-54.0412	-1.6031
-54.6272	-1.6038
-53.2207	-1.6009
-52.4003	-1.6
-52.0487	-1.5985
-53.2207	-1.5978
-55.4476	-1.5977
-53.2207	-1.5953
-51.2283	-1.5952
-51.2283	-1.5938
-50.4079	-1.5935
-50.4079	-1.5925
-50.4079	-1.5903
-50.1735	-1.5904
-48.8842	-1.588
-49.353	-1.5873
-47.4778	-1.5847
-46.5402	-1.584
-47.7122	-1.5817
-46.5402	-1.5825
-48.0638	-1.5818
-47.9466	-1.5783
-43.9617	-1.5783
-44.6649	-1.578
-46.5402	-1.5752
-43.7273	-1.5732
-45.6025	-1.574
-42.5553	-1.574
-45.6025	-1.572
-42.9069	-1.5695
-41.9692	-1.5688
-43.2585	-1.5674
-40.5628	-1.5659
-42.4381	-1.5663
-39.8596	-1.565
-38.1015	-1.563
-39.7424	-1.5618
-39.508	-1.562
-37.8671	-1.559
-38.8048	-1.5588
-38.1015	-1.557
-40.094	-1.556
-35.9919	-1.5555
-39.508	-1.554
-35.7575	-1.5532
-35.2887	-1.5512
-35.2887	-1.5488
-35.7575	-1.549
-33.6478	-1.5488
-34.1166	-1.5468
-33.9995	-1.546
-33.6478	-1.5441
-35.2887	-1.544
-30.9522	-1.543
-32.2414	-1.5408
-31.5382	-1.5383
-32.4758	-1.5395
-30.7178	-1.5375
-29.4285	-1.536
-29.5457	-1.5345
-28.8425	-1.5325
-28.4909	-1.5321
-28.7253	-1.5315
-27.7877	-1.5303
-28.2565	-1.5298
-26.85	-1.529
-26.7328	-1.527
-27.6705	-1.5253
-26.3812	-1.5254
-24.506	-1.5249
-26.1468	-1.5219
-25.2092	-1.521
-27.3189	-1.5201
-23.4512	-1.5186
-23.3339	-1.5176
-24.9748	-1.517
-24.6232	-1.516
-23.0995	-1.515
-21.3415	-1.513
-20.7555	-1.5121
-21.4587	-1.5118
-20.1695	-1.5105
-20.7555	-1.5103
-21.4587	-1.509
-19.7006	-1.5063
-18.4114	-1.5055
-18.2942	-1.505
-18.5286	-1.5015
-18.6458	-1.502
-17.005	-1.501
-15.7157	-1.4991
-17.1222	-1.4973
-16.0674	-1.4969
-16.6534	-1.496
-14.3093	-1.4936
-13.7233	-1.4931
-13.3717	-1.4921
-16.0674	-1.4905
-12.4341	-1.4902
-12.9029	-1.4881
-14.1921	-1.4877
-12.7857	-1.488
-12.9029	-1.4857
-12.7857	-1.484
-11.848	-1.4829
-9.3868	-1.4801
-10.4416	-1.48
-8.918	-1.4799
-9.6212	-1.4795
-9.504	-1.476
-9.504	-1.4765
-7.9804	-1.4741
-9.1524	-1.474
-6.5739	-1.4732
-7.6287	-1.4707
-9.8556	-1.47
-6.1051	-1.4676
-7.8631	-1.468
-7.0427	-1.466
-4.347	-1.4641
-2.8234	-1.466
-3.4094	-1.4625
-2.9406	-1.463
-2.1202	-1.461
-4.2299	-1.461
-1.8858	-1.459
-1.6514	-1.4579
-1.417	-1.4534
-2.003	-1.4555
-0.7138	-1.4555
-1.5342	-1.4546
-2.1202	-1.4552